Sensor Model:   RX-102A-Lakeshore_hifi
Serial Number:  RX102A
Data Format:    4      (Log Ohms/Kelvin)
SetPoint Limit: 10      (Kelvin)
Temperature coefficient:  1 (Negative)
Number of Breakpoints:   67

No.   Units      Temperature (K)

1      3.0068937079       100     
2      3.0700378666       10              
3      3.116607744        5                  
4      3.2255677134       2                  
5       3.240100881   1.7969891485
6     3.2602632162  1.6526535399
7     3.2803958603  1.519911083
8     3.3005541355  1.3978306066
9     3.3207933646  1.2855557319
10    3.34116887    1.1822988652
11    3.3617359743  1.0873356727
12    3.38255       1
13    3.4036662697  0.9196791985
14    3.4251401059  0.8458098282
15    3.4470268311  0.7778737049
16    3.469381768   0.7153942654
17    3.4922602389  0.6579332247
18    3.5157175666  0.6050875007
19    3.5398090734  0.5564863877
20    3.5645900821  0.511788955
21    3.590115915   0.470681656
22    3.6164418948  0.4328761281 
23    3.643623344   0.3981071706 
24    3.6717155851  0.3661308835 
25    3.7007739407  0.3367229575 
26    3.7308537333  0.3096770997 
27    3.7620102855  0.2848035868
28    3.7942989198  0.2619279345
29    3.8277749587  0.2408896729
30    3.8624937248  0.2215412213
31    3.8985105406  0.2037468528
32    3.9358807288  0.1873817423
33    3.9746596117  0.1723310906
34    4.014902512   0.1584893192
35    4.0566647522  0.1457593301
36    4.1000016548  0.1340518239
37    4.1449685425  0.1232846739
38    4.1916207377  0.1133823501
39    4.2400135628  0.1042753889
40    4.2902023407  0.0958999061
41    4.3422423936  0.0881971488
42    4.3961890443  0.0811130831
43    4.4520976153  0.0745980152
44    4.5100234289  0.0686062429
45    4.570021808   0.0630957344
46    4.632148075   0.0580278345
47    4.6964575522  0.0533669923
48    4.7630055625  0.0490805127
49    4.8318474283  0.0451383266
50    4.903038472   0.04151278
51    4.9766340165  0.0381784403
52    5.0526893838  0.0351119173
53    5.1312598971  0.0322917
54    5.2124008785  0.0296980048
55    5.2961676505  0.0273126372
56    5.382615536   0.0251188643
57    5.4717998573  0.023101297
58    5.5637759368  0.0212457823
59    5.6585990974  0.019539304
60    5.7563246616  0.0179698915
61    5.8570079514  0.0165265354
62    5.9607042901  0.0151991108
63    6.0674689995  0.0139783061
64    6.1773574029  0.0128555573
65    6.2904248225  0.0118229887
66    6.4067265805  0.0108733567
67    6.526318      0.01
