Sensor	Model:	RX-C-2500		
Serial	Number:	RX19801		
Data	Format:	4	(Log	Ohms/Kelvin)
SetPoint	Limit:	300	(Kelvin)	
Temperature	coefficient:	1	(Negative)	
Number	of	Breakpoints:	148	
				
No.	Units	Temperature	(K)	
				
1	3.42775	197.548242		
2	3.427776	185.272011		
3	3.427796	210.637903		
4	3.427873	173.758661		
5	3.427906	224.594893		
6	3.42803	162.960785		
7	3.428071	239.476681		
8	3.428274	152.83392		
9	3.428289	255.344545		
10	3.428555	272.263823		
11	3.42859	143.336369		
12	3.428858	290.304182		
13	3.428988	134.429024		
14	3.429185	309.539906		
15	3.429465	126.075207		
16	3.42952	330.0502		
17	3.430012	118.240522		
18	3.430656	110.892707		
19	3.431367	104.001506		
20	3.432165	97.538546		
21	3.433038	91.477212		
22	3.433996	85.792548		
23	3.435035	80.461146		
24	3.43616	75.461053		
25	3.437369	70.77168		
26	3.438662	66.373719		
27	3.440041	62.24906		
28	3.441509	58.38072		
29	3.443079	54.752769		
30	3.444744	51.350271		
31	3.446504	48.159213		
32	3.448373	45.166457		
33	3.450355	42.35968		
34	3.452437	39.727325		
35	3.454651	37.258552		
36	3.456972	34.943195		
37	3.459433	32.771722		
38	3.46202	30.73519		
39	3.464735	28.825215		
40	3.467592	27.033931		
41	3.470583	25.353962		
42	3.473732	23.778392		
43	3.477037	22.300733		
44	3.480483	20.914899		
45	3.484091	19.615186		
46	3.487873	18.39624		
47	3.491824	17.253044		
48	3.495961	16.180889		
49	3.500277	15.17536		
50	3.504789	14.232319		
51	3.509511	13.34788		
52	3.514435	12.518404		
53	3.519589	11.740473		
54	3.524958	11.010885		
55	3.53056	10.326636		
56	3.536419	9.684909		
57	3.542517	9.08306		
58	3.54887	8.518612		
59	3.555503	7.98924		
60	3.56239	7.492765		
61	3.569578	7.027143		
62	3.577053	6.590455		
63	3.584814	6.180905		
64	3.592869	5.796805		
65	3.601235	5.436575		
66	3.609936	5.09873		
67	3.618973	4.78188		
68	3.62831	4.48472		
69	3.637985	4.206026		
70	3.648004	3.944651		
71	3.658363	3.699519		
72	3.669083	3.46962		
73	3.680167	3.254007		
74	3.691603	3.051794		
75	3.703464	2.862146		
76	3.715719	2.684284		
77	3.72837	2.517475		
78	3.74143	2.361031		
79	3.754883	2.21431		
80	3.768758	2.076706		
81	3.783063	1.947653		
82	3.797765	1.826621		
83	3.812874	1.713109		
84	3.828254	1.606651		
85	3.843897	1.506809		
86	3.859279	1.413172		
87	3.876133	1.325353		
88	3.893514	1.242992		
89	3.910364	1.165748		
90	3.929153	1.093305		
91	3.949621	1.025364		
92	3.968448	0.961645		
93	3.987651	0.901886		
94	4.007614	0.84584		
95	4.027696	0.793277		
96	4.048759	0.74398		
97	4.069519	0.697747		
98	4.09202	0.654387		
99	4.114457	0.613721		
100	4.136817	0.575583		
101	4.160801	0.539815		
102	4.185246	0.506269		
103	4.210286	0.474808		
104	4.235599	0.445302		
105	4.261681	0.41763		
106	4.288367	0.391677		
107	4.313949	0.367337		
108	4.343747	0.344509		
109	4.372026	0.323101		
110	4.402018	0.303022		
111	4.432077	0.284191		
112	4.463249	0.266531		
113	4.495525	0.249968		
114	4.52849	0.234434		
115	4.561597	0.219866		
116	4.596634	0.206203		
117	4.632754	0.193389		
118	4.668199	0.181371		
119	4.70661	0.1701		
120	4.745497	0.159529		
121	4.786042	0.149616		
122	4.827088	0.140318		
123	4.869719	0.131598		
124	4.913572	0.123421		
125	4.957969	0.115751		
126	5.006383	0.108558		
127	5.052661	0.101812		
128	5.104482	0.095485		
129	5.155417	0.089551		
130	5.208789	0.083986		
131	5.265935	0.078767		
132	5.323424	0.073872		
133	5.384809	0.069282		
134	5.444202	0.064976		
135	5.51132	0.060938		
136	5.573934	0.057151		
137	5.648425	0.0536		
138	5.716027	0.050269		
139	5.795265	0.047145		
140	5.863628	0.044215		
141	5.949965	0.041468		
142	6.024455	0.038891		
143	6.109947	0.036474		
144	6.18535	0.034207		
145	6.264737	0.032082		
146	6.334741	0.030088		
147	6.401012	0.028218		
148	6.447682	0.026465		
