Sensor Model:   RX-102A-AA-0.05B
Serial Number:  U02045
Data Format:    4      (Log Ohms/Kelvin)
SetPoint Limit: 40.0      (Kelvin)
Temperature coefficient:  1 (Negative)
Number of Breakpoints:   148

No.   Units      Temperature (K)

  1  3.02337        40.000
  2  3.02389        38.800
  3  3.02440        37.700
  4  3.02493        36.600
  5  3.02550        35.500
  6  3.02610        34.400
  7  3.02667        33.400
  8  3.02729        32.400
  9  3.02793        31.400
 10  3.02862        30.400
 11  3.02935        29.400
 12  3.03014        28.400
 13  3.03089        27.500
 14  3.03168        26.600
 15  3.03253        25.700
 16  3.03344        24.800
 17  3.03441        23.900
 18  3.03545        23.000
 19  3.03657        22.100
 20  3.03764        21.300
 21  3.03879        20.500
 22  3.03979        19.850
 23  3.04060        19.350
 24  3.04145        18.850
 25  3.04234        18.350
 26  3.04328        17.850
 27  3.04417        17.400
 28  3.04511        16.950
 29  3.04609        16.500
 30  3.04713        16.050
 31  3.04822        15.600
 32  3.04937        15.150
 33  3.05060        14.700
 34  3.05189        14.250
 35  3.05326        13.800
 36  3.05455        13.400
 37  3.05591        13.000
 38  3.05735        12.600
 39  3.05887        12.200
 40  3.06048        11.800
 41  3.06220        11.400
 42  3.06402        11.000
 43  3.06597        10.600
 44  3.06780        10.250
 45  3.06974         9.900
 46  3.07181         9.550
 47  3.07404         9.200
 48  3.07645         8.850
 49  3.07904         8.500
 50  3.08180         8.150
 51  3.08473         7.800
 52  3.08741         7.500
 53  3.09029         7.200
 54  3.09343         6.900
 55  3.09686         6.600
 56  3.10056         6.300
 57  3.10510         5.960
 58  3.10917         5.680
 59  3.11329         5.420
 60  3.11776         5.160
 61  3.12264         4.900
 62  3.12798         4.640
 63  3.13384         4.380
 64  3.13980         4.140
 65  3.14523         3.940
 66  3.15020         3.770
 67  3.15522         3.610
 68  3.16061         3.450
 69  3.16643         3.290
 70  3.17231         3.140
 71  3.17866         2.990
 72  3.18555         2.840
 73  3.19253         2.700
 74  3.20010         2.560
 75  3.20837         2.420
 76  3.21677         2.290
 77  3.22593         2.160
 78  3.23598         2.030
 79  3.24620         1.910
 80  3.25742         1.790
 81  3.26985         1.670
 82  3.28252         1.560
 83  3.29659         1.450
 84  3.31240         1.340
 85  3.32857         1.240
 86  3.33932         1.180
 87  3.34685         1.140
 88  3.35478         1.100
 89  3.36313         1.060
 90  3.37196         1.020
 91  3.38017         0.985
 92  3.38891         0.950
 93  3.39831         0.915
 94  3.40972         0.875
 95  3.42324         0.830
 96  3.43594         0.790
 97  3.44784         0.755
 98  3.46060         0.720
 99  3.47431         0.685
100  3.48903         0.650
101  3.50262         0.620
102  3.51715         0.590
103  3.53283         0.560
104  3.54979         0.530
105  3.56508         0.505
106  3.57877         0.484
107  3.59265         0.464
108  3.60742         0.444
109  3.62319         0.424
110  3.63834         0.406
111  3.65444         0.388
112  3.67164         0.370
113  3.69002         0.352
114  3.70973         0.334
115  3.73090         0.316
116  3.75373         0.298
117  3.77556         0.282
118  3.79901         0.266
119  3.82432         0.250
120  3.84999         0.235
121  3.87778         0.220
122  3.90605         0.206
123  3.93464         0.193
124  3.96593         0.180
125  3.99782         0.168
126  4.03015         0.157
127  4.06607         0.146
128  4.10281         0.136
129  4.14417         0.126
130  4.19140         0.116
131  4.24001         0.107
132  4.30410         0.097
133  4.38027         0.086
134  4.46521         0.075
135  4.53922         0.066
136  4.60547         0.060
137  4.67495         0.054
138  4.73607         0.050
139 4.7557           0.048093007
140 4.814933133    0.04394173
141 4.864933133    0.041142987
142 4.914933133    0.038589535
143 4.964933133    0.036256857
144 5.014933132    0.034123262
145 5.064933133    0.032169514
146 5.114933133    0.030378517
147 5.164933133    0.028735054
148 5.214933132    0.027225553
