Sensor Model:   RX-102A-AA-0.05D-0.05B
Serial Number:  UMEN102
Data Format:    4      (Log Ohms/Kelvin)
SetPoint Limit: 40.      (Kelvin)
Temperature coefficient:  1 (Negative)
Number of Breakpoints:   104
Extrapolated: 2018-10-18 M.Zolliker

No.   Units      Temperature (K)

1	2.99577	330
2	2.99634	295
3	2.9988	200
4	3.00125	150
5	3.00312	125
6	3.00581	100
7	3.00893	80
8	3.01101	70
9	3.01359	60
10	3.01511	55
11	3.01681	50
12	3.01871	45
13	3.02081	40
14	3.02133	38.8
15	3.02184	37.7
16	3.02237	36.6
17	3.02294	35.5
18	3.02353	34.4
19	3.02411	33.4
20	3.02472	32.4
21	3.02537	31.4
22	3.02605	30.4
23	3.02679	29.4
24	3.02749	28.5
25	3.02823	27.6
26	3.02903	26.7
27	3.02988	25.8
28	3.03078	24.9
29	3.03176	24
30	3.0328	23.1
31	3.03393	22.2
32	3.035	21.4
33	3.03615	20.6
34	3.03716	19.95
35	3.03797	19.45
36	3.03882	18.95
37	3.03971	18.45
38	3.04065	17.95
39	3.04164	17.45
40	3.04258	17
41	3.04357	16.55
42	3.0446	16.1
43	3.04569	15.65
44	3.04685	15.2
45	3.04807	14.75
46	3.04936	14.3
47	3.05058	13.9
48	3.05186	13.5
49	3.05322	13.1
50	3.05466	12.7
51	3.05618	12.3
52	3.0578	11.9
53	3.05952	11.5
54	3.06135	11.1
55	3.0633	10.7
56	3.06537	10.3
57	3.0676	9.9
58	3.06968	9.55
59	3.0719	9.2
60	3.07428	8.85
61	3.07685	8.5
62	3.07922	8.2
63	3.08175	7.9
64	3.08447	7.6
65	3.08786	7.25
66	3.0915	6.9
67	3.09485	6.6
68	3.09791	6.35
69	3.10191	6.05
70	3.10638	5.74
71	3.11078	5.46
72	3.11558	5.18
73	3.12085	4.9
74	3.12622	4.64
75	3.13211	4.38
76	3.13861	4.12
77	3.14411	3.92
78	3.14913	3.75
79	3.15454	3.58
80	3.16002	3.42
81	3.16593	3.26
82	3.17191	3.11
83	3.17838	2.96
84	3.1854	2.81
85	3.19253	2.67
86	3.20027	2.53
87	3.20875	2.39
88	3.21736	2.26
89	3.22675	2.13
90	3.23707	2
91	3.24842	1.87
92	3.26	1.75
93	3.27169	1.64
94	3.28462	1.53
95	3.29779	1.43
96	3.31256	1.33
97	3.32938	1.23
98	3.34846	1.13
99	3.37196	1.02
100	3.3922	0.935
101	3.41621	0.85
102	3.44351	0.765
103	3.47148	0.69
104	3.5042	0.615
105	3.54057	0.545
106	3.58493	0.474
107	3.63222	0.412
108	3.68615	0.354
109	3.75456	0.295
110	3.82865	0.245
111	3.91348	0.201
112	4.01514	0.162
113	4.14432	0.127
114	4.34126	0.091
115	4.54568	0.066
116	4.79803	0.05
