Sensor Model:   CX-unknown
Serial Number:  X131346
Data Format:    5    (Log Ohms/Log Kelvin)
SetPoint Limit: 325.0
Temperature coefficient:  1 (Negative)
Number of Breakpoints:   147
Calibration date: 2020-04-29

No.   Units      Temperature (K)

   1    1.56188    2.51188
   2    1.56717    2.50379
   3    1.57213    2.49624
   4    1.57719    2.48855
   5    1.58237    2.48073
   6    1.58767    2.47276
   7    1.59310    2.46464
   8    1.59865    2.45637
   9    1.60434    2.44793
  10    1.61016    2.43933
  11    1.61611    2.43056
  12    1.62220    2.42160
  13    1.62843    2.41246
  14    1.63480    2.40312
  15    1.64074    2.39445
  16    1.64680    2.38561
  17    1.65299    2.37658
  18    1.65933    2.36736
  19    1.66580    2.35793
  20    1.67243    2.34830
  21    1.67921    2.33846
  22    1.68614    2.32838
  23    1.69325    2.31806
  24    1.70052    2.30750
  25    1.70798    2.29667
  26    1.71562    2.28556
  27    1.72345    2.27416
  28    1.73147    2.26245
  29    1.73889    2.25164
  30    1.74646    2.24055
  31    1.75421    2.22917
  32    1.76216    2.21748
  33    1.77029    2.20548
  34    1.77863    2.19312
  35    1.78718    2.18041
  36    1.79595    2.16732
  37    1.80494    2.15381
  38    1.81418    2.13988
  39    1.82260    2.12710
  40    1.83123    2.11394
  41    1.84009    2.10037
  42    1.84917    2.08636
  43    1.85851    2.07188
  44    1.86811    2.05690
  45    1.87799    2.04139
  46    1.88816    2.02531
  47    1.89734    2.01072
  48    1.90406    2.00000
  49    1.91091    1.98900
  50    1.91791    1.97772
  51    1.92506    1.96614
  52    1.93237    1.95424
  53    1.93985    1.94201
  54    1.94753    1.92942
  55    1.95539    1.91645
  56    1.96345    1.90309
  57    1.97173    1.88930
  58    1.97853    1.87795
  59    1.98547    1.86629
  60    1.99258    1.85431
  61    1.99986    1.84198
  62    2.00732    1.82930
  63    2.01498    1.81624
  64    2.02284    1.80277
  65    2.03091    1.78888
  66    2.03964    1.77379
  67    2.04819    1.75891
  68    2.05701    1.74351
  69    2.06519    1.72916
  70    2.07360    1.71433
  71    2.08226    1.69897
  72    2.09118    1.68305
  73    2.10040    1.66652
  74    2.10991    1.64933
  75    2.11865    1.63347
  76    2.12766    1.61700
  77    2.13754    1.59879
  78    2.14717    1.58092
  79    2.15715    1.56229
  80    2.16684    1.54407
  81    2.17686    1.52504
  82    2.18726    1.50515
  83    2.19735    1.48572
  84    2.20782    1.46538
  85    2.21871    1.44404
  86    2.22924    1.42325
  87    2.24022    1.40140
  88    2.25080    1.38021
  89    2.26183    1.35793
  90    2.27338    1.33445
  91    2.28450    1.31175
  92    2.29294    1.29447
  93    2.30002    1.27989
  94    2.30732    1.26482
  95    2.31487    1.24920
  96    2.32269    1.23300
  97    2.33017    1.21748
  98    2.33793    1.20140
  99    2.34598    1.18469
 100    2.35365    1.16879
 101    2.36161    1.15229
 102    2.36991    1.13513
 103    2.37857    1.11727
 104    2.38679    1.10037
 105    2.39537    1.08279
 106    2.40434    1.06446
 107    2.41281    1.04727
 108    2.42165    1.02938
 109    2.43094    1.01072
 110    2.44071    0.99123
 111    2.44985    0.97313
 112    2.45944    0.95424
 113    2.46956    0.93450
 114    2.48026    0.91381
 115    2.49162    0.89209
 116    2.50218    0.87216
 117    2.51335    0.85126
 118    2.52524    0.82930
 119    2.53794    0.80618
 120    2.55155    0.78176
 121    2.56449    0.75891
 122    2.57790    0.73560
 123    2.59231    0.71096
 124    2.60680    0.68664
 125    2.62242    0.66087
 126    2.63812    0.63548
 127    2.65511    0.60853
 128    2.66929    0.58659
 129    2.68207    0.56703
 130    2.69568    0.54654
 131    2.70934    0.52634
 132    2.72391    0.50515
 133    2.73953    0.48287
 134    2.75527    0.46090
 135    2.77219    0.43775
 136    2.78926    0.41497
 137    2.80769    0.39094
 138    2.82626    0.36736
 139    2.84633    0.34242
 140    2.86817    0.31597
 141    2.89006    0.29003
 142    2.91375    0.26245
 143    2.93984    0.23300
 144    2.96644    0.20412
 145    2.99330    0.17609
 146    3.02060    0.14922
 147    3.02412    0.14613
