Sensor Model:   CX-unknown
Serial Number:  X68057
Data Format:    5    (Log Ohms/Log Kelvin)
SetPoint Limit: 330.1
Temperature coefficient:  1 (Negative)
Number of Breakpoints:   149
Calibration date: 2012-02-27

No.   Units      Temperature (K)

   1    1.76409    2.51858
   2    1.76991    2.51188
   3    1.77700    2.50379
   4    1.78365    2.49624
   5    1.79044    2.48855
   6    1.79736    2.48073
   7    1.80444    2.47276
   8    1.81168    2.46464
   9    1.81908    2.45637
  10    1.82665    2.44793
  11    1.83439    2.43933
  12    1.84230    2.43056
  13    1.85040    2.42160
  14    1.85870    2.41246
  15    1.86718    2.40312
  16    1.87508    2.39445
  17    1.88315    2.38561
  18    1.89140    2.37658
  19    1.89983    2.36736
  20    1.90847    2.35793
  21    1.91730    2.34830
  22    1.92634    2.33846
  23    1.93559    2.32838
  24    1.94507    2.31806
  25    1.95478    2.30750
  26    1.96472    2.29667
  27    1.97492    2.28556
  28    1.98539    2.27416
  29    1.99612    2.26245
  30    2.00603    2.25164
  31    2.01617    2.24055
  32    2.02656    2.22917
  33    2.03721    2.21748
  34    2.04813    2.20548
  35    2.05935    2.19312
  36    2.07085    2.18041
  37    2.08268    2.16732
  38    2.09483    2.15381
  39    2.10733    2.13988
  40    2.11876    2.12710
  41    2.13050    2.11394
  42    2.14256    2.10037
  43    2.15497    2.08636
  44    2.16775    2.07188
  45    2.18092    2.05690
  46    2.19450    2.04139
  47    2.20854    2.02531
  48    2.22122    2.01072
  49    2.23053    2.00000
  50    2.24003    1.98900
  51    2.24976    1.97772
  52    2.25971    1.96614
  53    2.26990    1.95424
  54    2.28036    1.94201
  55    2.29109    1.92942
  56    2.30211    1.91645
  57    2.31343    1.90309
  58    2.32508    1.88930
  59    2.33465    1.87795
  60    2.34445    1.86629
  61    2.35449    1.85431
  62    2.36480    1.84198
  63    2.37538    1.82930
  64    2.38625    1.81624
  65    2.39743    1.80277
  66    2.40894    1.78888
  67    2.42140    1.77379
  68    2.43365    1.75891
  69    2.44630    1.74351
  70    2.45806    1.72916
  71    2.47018    1.71433
  72    2.48270    1.69897
  73    2.49563    1.68305
  74    2.50902    1.66652
  75    2.52290    1.64933
  76    2.53568    1.63347
  77    2.54889    1.61700
  78    2.56345    1.59879
  79    2.57768    1.58092
  80    2.59248    1.56229
  81    2.60691    1.54407
  82    2.62190    1.52504
  83    2.63753    1.50515
  84    2.65274    1.48572
  85    2.66860    1.46538
  86    2.68518    1.44404
  87    2.70130    1.42325
  88    2.71817    1.40140
  89    2.73451    1.38021
  90    2.75162    1.35793
  91    2.76963    1.33445
  92    2.78705    1.31175
  93    2.80034    1.29447
  94    2.81151    1.27989
  95    2.82307    1.26482
  96    2.83507    1.24920
  97    2.84753    1.23300
  98    2.85949    1.21748
  99    2.87192    1.20140
 100    2.88487    1.18469
 101    2.89725    1.16879
 102    2.91015    1.15229
 103    2.92363    1.13513
 104    2.93774    1.11727
 105    2.95120    1.10037
 106    2.96528    1.08279
 107    2.98006    1.06446
 108    2.99406    1.04727
 109    3.00875    1.02938
 110    3.02422    1.01072
 111    3.04056    0.99123
 112    3.05592    0.97313
 113    3.07211    0.95424
 114    3.08925    0.93450
 115    3.10747    0.91381
 116    3.12691    0.89209
 117    3.14508    0.87216
 118    3.16439    0.85126
 119    3.18506    0.82930
 120    3.20725    0.80618
 121    3.23120    0.78176
 122    3.25411    0.75891
 123    3.27801    0.73560
 124    3.30385    0.71096
 125    3.33004    0.68664
 126    3.35844    0.66087
 127    3.38723    0.63548
 128    3.41861    0.60853
 129    3.44500    0.58659
 130    3.46895    0.56703
 131    3.49460    0.54654
 132    3.52053    0.52634
 133    3.54836    0.50515
 134    3.57842    0.48287
 135    3.60893    0.46090
 136    3.64197    0.43775
 137    3.67556    0.41497
 138    3.71208    0.39094
 139    3.74920    0.36736
 140    3.78969    0.34242
 141    3.83424    0.31597
 142    3.87952    0.29003
 143    3.92924    0.26245
 144    3.98433    0.23300
 145    4.04047    0.20412
 146    4.09710    0.17609
 147    4.15472    0.14922
 148    4.16216    0.14613
 149    4.31686    0.07968
