Sensor Model:   CX-1050-CU
Serial Number:  X68258
Data Format:    5    (Log Ohms/Log Kelvin)
SetPoint Limit: 330.2
Temperature coefficient:  1 (Negative)
Number of Breakpoints:   148

No.   Units      Temperature (K)

   1    1.80708    2.51884
   2    1.81334    2.51188
   3    1.82068    2.50379
   4    1.82755    2.49624
   5    1.83456    2.48855
   6    1.84173    2.48073
   7    1.84906    2.47276
   8    1.85654    2.46464
   9    1.86419    2.45637
  10    1.87201    2.44793
  11    1.88002    2.43933
  12    1.88820    2.43056
  13    1.89657    2.42160
  14    1.90514    2.41246
  15    1.91391    2.40312
  16    1.92207    2.39445
  17    1.93041    2.38561
  18    1.93893    2.37658
  19    1.94764    2.36736
  20    1.95656    2.35793
  21    1.96567    2.34830
  22    1.97500    2.33846
  23    1.98455    2.32838
  24    1.99434    2.31806
  25    2.00436    2.30750
  26    2.01463    2.29667
  27    2.02515    2.28556
  28    2.03595    2.27416
  29    2.04704    2.26245
  30    2.05840    2.25042
  31    2.06891    2.23930
  32    2.07967    2.22789
  33    2.09070    2.21617
  34    2.10202    2.20412
  35    2.11364    2.19173
  36    2.12557    2.17898
  37    2.13782    2.16584
  38    2.15043    2.15229
  39    2.16342    2.13830
  40    2.17678    2.12385
  41    2.18902    2.11059
  42    2.20159    2.09691
  43    2.21453    2.08279
  44    2.22785    2.06819
  45    2.24159    2.05308
  46    2.25578    2.03743
  47    2.27044    2.02119
  48    2.28561    2.00432
  49    2.29737    1.99123
  50    2.30739    1.98000
  51    2.31767    1.96848
  52    2.32819    1.95665
  53    2.33898    1.94448
  54    2.35006    1.93197
  55    2.36143    1.91908
  56    2.37312    1.90580
  57    2.38514    1.89209
  58    2.39753    1.87795
  59    2.40773    1.86629
  60    2.41816    1.85431
  61    2.42888    1.84198
  62    2.43988    1.82930
  63    2.45119    1.81624
  64    2.46282    1.80277
  65    2.47480    1.78888
  66    2.48777    1.77379
  67    2.50053    1.75891
  68    2.51371    1.74351
  69    2.52595    1.72916
  70    2.53858    1.71433
  71    2.55163    1.69897
  72    2.56512    1.68305
  73    2.57909    1.66652
  74    2.59357    1.64933
  75    2.60859    1.63144
  76    2.62247    1.61490
  77    2.63774    1.59660
  78    2.65269    1.57864
  79    2.66822    1.55991
  80    2.68337    1.54158
  81    2.69914    1.52244
  82    2.71556    1.50243
  83    2.73157    1.48287
  84    2.74825    1.46240
  85    2.76570    1.44091
  86    2.78268    1.41996
  87    2.80046    1.39794
  88    2.81768    1.37658
  89    2.83574    1.35411
  90    2.85478    1.33041
  91    2.87319    1.30750
  92    2.88727    1.29003
  93    2.89911    1.27531
  94    2.91138    1.26007
  95    2.92412    1.24428
  96    2.93634    1.22917
  97    2.94901    1.21352
  98    2.96222    1.19728
  99    2.97598    1.18041
 100    2.98915    1.16435
 101    3.00288    1.14768
 102    3.01723    1.13033
 103    3.03090    1.11394
 104    3.04520    1.09691
 105    3.06019    1.07918
 106    3.07596    1.06070
 107    3.09091    1.04336
 108    3.10660    1.02531
 109    3.12315    1.00647
 110    3.14065    0.98677
 111    3.15713    0.96848
 112    3.17451    0.94939
 113    3.19296    0.92942
 114    3.21258    0.90849
 115    3.23354    0.88649
 116    3.25316    0.86629
 117    3.27407    0.84510
 118    3.29647    0.82282
 119    3.32058    0.79934
 120    3.34745    0.77379
 121    3.37169    0.75128
 122    3.39781    0.72754
 123    3.42615    0.70243
 124    3.45496    0.67761
 125    3.48629    0.65128
 126    3.51816    0.62531
 127    3.54482    0.60423
 128    3.56898    0.58546
 129    3.59481    0.56585
 130    3.62250    0.54531
 131    3.65052    0.52504
 132    3.68063    0.50379
 133    3.71320    0.48144
 134    3.74629    0.45939
 135    3.77974    0.43775
 136    3.81598    0.41497
 137    3.85552    0.39094
 138    3.89569    0.36736
 139    3.93959    0.34242
 140    3.98792    0.31597
 141    4.03710    0.29003
 142    4.09119    0.26245
 143    4.15123    0.23300
 144    4.21256    0.20412
 145    4.27464    0.17609
 146    4.33809    0.14922
 147    4.34632    0.14613
 148    4.51935    0.07880
